File: VSM data/D2Sresistivity.txt
DEPT .m 	Cali in	DT us/ft	GR  gAPI	LLD ohmm	LLS ohmm	MSFL ohmm	NPHI m3/m3	RHOB g/cm3	SP mV	MD M	TVDSS	UTME	UTMN
1219.17	-999.25	-999.25	-999.25	-999.25	-999.25	-999.25	-999.25	-999.25	-999.25	1219.2	1208	399495	85650.1
1225.47	-999.25	-999.25	-999.25	-999.25	-999.25	-999.25	-999.25	-999.25	-999.25	1225.5	1214.22	399496	85649.5
1231.77	-999.25	-999.25	-999.25	-999.25	-999.25	-999.25	-999.25	-999.25	-999.25	1231.81	1220.44	399497.5	85648.8
1238.07	-999.25	-999.25	-999.25	-999.25	-999.25	-999.25	-999.25	-999.25	-999.25	1238.11	1226.67	399499	85648.2
1244.37	-999.25	-999.25	-999.25	-999.25	-999.25	-999.25	-999.25	-999.25	-999.25	1244.41	1232.89	399500	85647.5
1250.67	-999.25	-999.25	-999.25	-999.25	-999.25	-999.25	-999.25	-999.25	-999.25	1250.72	1239.1	399498	85646.5
1256.97	-999.25	-999.25	-999.25	-999.25	-999.25	-999.25	-999.25	-999.25	-999.25	1256.99	1245.25	399500	85645.6
1263.27	-999.25	-999.25	-999.25	-999.25	-999.25	-999.25	-999.25	-999.25	-999.25	1263.26	1251.4	399501	85644.6
1269.57	-999.25	-999.25	-999.25	-999.25	-999.25	-999.25	-999.25	-999.25	-999.25	1269.53	1257.55	399502	85643.6
1275.87	-999.25	-999.25	-999.25	-999.25	-999.25	-999.25	-999.25	-999.25	-999.25	1275.81	1263.7	399504	85642.7
1282.17	-999.25	-999.25	-999.25	-999.25	-999.25	-999.25	-999.25	-999.25	-999.25	1282.09	1269.86	399503	85642.3
1288.47	-999.25	-999.25	-999.25	-999.25	-999.25	-999.25	-999.25	-999.25	-999.25	1288.4	1276.05	399504	85641.3
1294.77	-999.25	-999.25	-999.25	-999.25	-999.25	-999.25	-999.25	-999.25	-999.25	1294.72	1282.24	399505	85640.375
1301.07	-999.25	-999.25	-999.25	-999.25	-999.25	-999.25	-999.25	-999.25	-999.25	1301.03	1288.43	399507	85639.4
1307.37	-999.25	-999.25	-999.25	-999.25	-999.25	-999.25	-999.25	-999.25	-999.25	1307.34	1294.62	399507.875	85638.4
1313.67	-999.25	-999.25	-999.25	-999.25	-999.25	-999.25	-999.25	-999.25	-999.25	1313.66	1300.78	399507	85636.8
1319.97	-999.25	-999.25	-999.25	-999.25	-999.25	-999.25	-999.25	-999.25	-999.25	1319.96	1306.92	399508	85635.5
1326.27	-999.25	-999.25	-999.25	-999.25	-999.25	-999.25	-999.25	-999.25	-999.25	1326.27	1313.07	399509	85634.2
1332.57	-999.25	-999.25	-999.25	-999.25	-999.25	-999.25	-999.25	-999.25	-999.25	1332.57	1319.21	399511	85632.9
1338.87	-999.25	-999.25	-999.25	-999.25	-999.25	-999.25	-999.25	-999.25	-999.25	1338.87	1325.35	399511.875	85631.6
1345.17	-999.25	-999.25	-999.25	-999.25	-999.25	-999.25	-999.25	-999.25	-999.25	1345.18	1331.45	399511	85630.6
1351.47	-999.25	-999.25	-999.25	-999.25	-999.25	-999.25	-999.25	-999.25	-999.25	1351.48	1337.54	399512	85629.3
1357.77	-999.25	-999.25	-999.25	-999.25	-999.25	-999.25	-999.25	-999.25	-999.25	1357.79	1343.64	399513	85628
1364.07	-999.25	-999.25	-999.25	-999.25	-999.25	-999.25	-999.25	-999.25	-999.25	1364.09	1349.74	399515	85626.7
1370.37	-999.25	-999.25	-999.25	-999.25	-999.25	-999.25	-999.25	-999.25	-999.25	1370.39	1355.83	399516	85625.4
1376.67	-999.25	-999.25	-999.25	-999.25	-999.25	-999.25	-999.25	-999.25	-999.25	1376.7	1361.9	399515	85623.6
1382.97	-999.25	-999.25	-999.25	-999.25	-999.25	-999.25	-999.25	-999.25	-999.25	1383	1367.96	399516	85622
1389.27	-999.25	-999.25	-999.25	-999.25	-999.25	-999.25	-999.25	-999.25	-999.25	1389.31	1374.01	399517.625	85620.4
1395.57	-999.25	-999.25	-999.25	-999.25	-999.25	-999.25	-999.25	-999.25	-999.25	1395.61	1380.07	399519	85618.75
1401.87	-999.25	-999.25	-999.25	-999.25	-999.25	-999.25	-999.25	-999.25	-999.25	1401.91	1386.12	399520	85617.1
1408.17	-999.25	-999.25	-999.25	-999.25	-999.25	-999.25	-999.25	-999.25	-999.25	1408.19	1392.06	399520	85616.2
1414.47	-999.25	-999.25	-999.25	-999.25	-999.25	-999.25	-999.25	-999.25	-999.25	1414.47	1397.98	399521	85614.6
1420.77	-999.25	-999.25	-999.25	-999.25	-999.25	-999.25	-999.25	-999.25	-999.25	1420.74	1403.9	399522	85613
1427.07	-999.25	-999.25	-999.25	-999.25	-999.25	-999.25	-999.25	-999.25	-999.25	1427.01	1409.83	399523	85611.4
1433.37	-999.25	-999.25	-999.25	-999.25	-999.25	-999.25	-999.25	-999.25	-999.25	1433.29	1415.73	399524.25	85609.6
1439.67	-999.25	-999.25	-999.25	-999.25	-999.25	-999.25	-999.25	-999.25	-999.25	1439.6	1421.48	399526	85607.6
1445.97	-999.25	-999.25	-999.25	-999.25	-999.25	-999.25	-999.25	-999.25	-999.25	1445.91	1427.23	399527	85605.7
1452.27	-999.25	-999.25	-999.25	-999.25	-999.25	-999.25	-999.25	-999.25	-999.25	1452.23	1432.99	399528.125	85603.8
1458.57	-999.25	-999.25	-999.25	-999.25	-999.25	-999.25	-999.25	-999.25	-999.25	1458.54	1438.74	399529	85601.8
1464.87	-999.25	-999.25	-999.25	-999.25	-999.25	-999.25	-999.25	-999.25	-999.25	1464.86	1444.42	399533.25	85599.5
1471.17	-999.25	-999.25	-999.25	-999.25	-999.25	-999.25	-999.25	-999.25	-999.25	1471.16	1449.92	399536	85597.3
1477.47	-999.25	-999.25	-999.25	-999.25	-999.25	-999.25	-999.25	-999.25	-999.25	1477.47	1455.42	399538	85595
1483.77	-999.25	-999.25	-999.25	-999.25	-999.25	-999.25	-999.25	-999.25	-999.25	1483.77	1460.93	399541	85592.75
1490.07	-999.25	-999.25	-999.25	-999.25	-999.25	-999.25	-999.25	-999.25	-999.25	1490.07	1466.43	399544	85590.5
1496.37	-999.25	-999.25	-999.25	-999.25	-999.25	-999.25	-999.25	-999.25	-999.25	1496.38	1471.9	399543	85587.9
1502.67	-999.25	-999.25	-999.25	-999.25	-999.25	-999.25	-999.25	-999.25	-999.25	1502.68	1477.38	399546	85585.6
1508.97	-999.25	-999.25	-999.25	-999.25	-999.25	-999.25	-999.25	-999.25	-999.25	1508.99	1482.85	399548	85583.3
1515.27	-999.25	-999.25	-999.25	-999.25	-999.25	-999.25	-999.25	-999.25	-999.25	1515.29	1488.33	399551	85581.1
1521.57	-999.25	-999.25	-999.25	-999.25	-999.25	-999.25	-999.25	-999.25	-999.25	1521.59	1493.8	399553.625	85578.8
1527.87	-999.25	-999.25	-999.25	-999.25	-999.25	-999.25	-999.25	-999.25	-999.25	1527.9	1499.31	399554	85576.3
1534.17	-999.25	-999.25	-999.25	-999.25	-999.25	-999.25	-999.25	-999.25	-999.25	1534.2	1504.81	399556	85574
1540.47	-999.25	-999.25	-999.25	-999.25	-999.25	-999.25	-999.25	-999.25	-999.25	1540.51	1510.31	399558.875	85571.8
1546.77	-999.25	-999.25	-999.25	-999.25	-999.25	-999.25	-999.25	-999.25	-999.25	1546.81	1515.81	399561	85569.5
1553.07	-999.25	-999.25	-999.25	-999.25	-999.25	-999.25	-999.25	-999.25	-999.25	1553.11	1521.31	399564	85567.3
1559.37	10.0813	76.1247	167.01	2.77524	2.80845	2.50973	0.206331	2.55598	-33.02	1559.4	1526.8	399563	85564.8
1565.67	10.1857	79.8033	178.992	2.56132	2.62939	2.48264	0.26168	2.539	-35.6	1565.67	1532.31	399564	85562.6
1571.97	10.2976	76.8928	170.804	2.94328	3.04486	2.80073	0.199868	2.53928	-33.6612	1571.94	1537.82	399566	85560.3
1578.27	10.3697	81.3694	234.662	3.12807	3.09709	2.87657	0.191015	2.54336	-32.2888	1578.22	1543.33	399567	85558.1
1584.57	10.4233	74.6448	167.46	3.036	3.0946	2.78291	0.155335	2.57244	-35.1557	1584.49	1548.85	399568	85555.8
1590.87	10.1986	77.0511	186.62	2.94389	3.08752	3.94337	0.14342	2.50477	-36.2756	1590.8	1554.41	399572	85553.125
1597.17	9.19027	66.824	162.845	4.90048	4.76637	3.51583	0.121405	2.56401	-36.5904	1597.11	1559.98	399574	85550.9
1603.47	8.87028	73.669	143.167	11.8376	9.56056	1.40702	0.177199	2.5152	-37.6948	1603.43	1565.55	399574.875	85548.6
1609.77	8.64039	87.0414	195.717	3.95811	2.94349	2.41163	0.240874	2.31783	-39.1496	1609.74	1571.11	399576	85546.3
1616.07	8.54312	76.0417	167.601	3.78195	2.53204	1.58476	0.203641	2.48907	-40.376	1616.06	1576.68	399580	85543.5
1622.37	8.477	82.5772	185.258	4.64386	4.15313	1.94522	0.188274	2.35493	-40.179	1622.36	1582.18	399582	85540.9
1628.67	8.44156	87.5043	161.769	4.74531	3.68285	2.70781	0.222574	2.29251	-40.6886	1628.67	1587.68	399583	85538.4
1634.97	8.4666	88.2418	154.05	3.94284	3.03017	1.6339	0.244279	2.22612	-39.2995	1634.97	1593.18	399584	85535.8
1641.27	8.461	85.2396	169.534	3.67256	3.14361	1.49274	0.220295	2.3269	-40.942	1641.27	1598.68	399585	85533.2
1647.57	8.461	91.031	131.684	3.1255	2.71682	1.01215	0.231803	2.30696	-38.1471	1647.58	1604.17	399589	85531.3
1653.87	8.44151	91.9083	169.114	2.85593	2.60421	0.723157	0.246928	2.23595	-41.1154	1653.88	1609.69	399590.625	85528.7
1660.17	8.445	88.4526	183.377	1.27364	1.12599	0.613039	0.211391	2.29424	-40.6511	1660.19	1615.21	399592	85526.1
1666.47	8.477	76.007	132.195	0.706994	0.597228	0.567119	0.240665	2.30383	-36.834	1666.49	1620.73	399593	85523.6
1672.77	8.492	82.0228	130.596	0.778474	0.597106	0.579696	0.215496	2.32451	-41.5413	1672.79	1626.25	399594.5	85521
1679.07	8.477	80.9656	122.575	0.62002	0.510854	0.462998	0.224939	2.29972	-46.0095	1679.1	1631.77	399598.375	85519.2
1685.37	8.61078	77.3033	148.655	0.954653	1.00689	0.752999	0.193803	2.39388	-40.9074	1685.4	1637.32	399600	85517
1691.67	8.60568	83.4299	141.935	0.637195	0.504746	0.39896	0.239219	2.2849	-45.222	1691.71	1642.86	399601	85514.7
1697.97	8.6346	83.6936	143.117	0.671501	0.591707	0.465287	0.217119	2.30446	-47.3717	1698.01	1648.4	399602.25	85512.5
1704.27	8.70415	66.4106	148.987	2.28977	1.83822	2.00893	0.149193	2.54477	-48.0511	1704.31	1653.94	399604	85510.2
1710.57	8.76265	67.99	105.884	1.44126	1.41968	1.06096	0.114244	2.47713	-48.8273	1710.6	1659.47	399607	85507.3
1716.87	8.71255	76.2056	132.882	1.36433	1.35166	1.09994	0.161561	2.41056	-53.1121	1716.88	1665	399608.75	85504.7
1723.17	8.70505	82.5686	139.028	0.79108	0.66582	0.569138	0.216187	2.304	-47.3622	1723.15	1670.53	399610	85502.1
1729.47	8.67973	79.4065	105.426	0.880554	0.831193	0.540565	0.20522	2.37359	-46.8748	1729.42	1676.06	399611	85499.5
1735.77	8.70178	76.0078	125.081	1.07701	0.968718	0.975381	0.151852	2.40766	-48.9915	1735.69	1681.59	399612.625	85496.9
1742.07	8.69337	81.8721	107.873	0.654419	0.672778	0.359554	0.213505	2.31839	-42.0259	1742	1687.17	399616	85495.1
1748.37	8.64519	81.4694	104.415	0.520167	0.51478	0.374324	0.196868	2.32313	-47.9621	1748.31	1692.75	399617	85492.5
1754.67	9.03048	72.4121	129.041	2.44748	2.43114	2.3833	0.127043	2.50768	-49.6483	1754.62	1698.34	399618.625	85490
1760.97	8.56493	80.5325	73.8774	0.698617	0.645005	0.418628	0.169161	2.34234	-53.6169	1760.94	1703.93	399620	85487.4
1767.27	8.71582	73.2529	109.239	1.83862	1.73274	1.00225	0.130167	2.49244	-55.5706	1767.25	1709.51	399621	85484.8
1773.57	8.58088	75.8739	95.1413	0.994121	0.914629	0.488313	0.170014	2.38017	-69.9597	-999.25	-999.25	-999.25	-999.25
1775.87	8.55585	74.9174	112.102	1.24587	1.27058	1.07216	0.165218	2.40004	-68.8687	-999.25	-999.25	-999.25	-999.25